##TITLE=No Description
##DATA TYPE=INFRARED SPECTRUM
##XUNITS=1/CM
##YUNITS=%T
399.452061  	30.456208 
400.888939  	28.312710 
402.325817  	30.233020 
403.762695  	30.631600 
405.199573  	29.686832 
406.636451  	30.334841 
408.073328  	29.045037 
409.510206  	29.277858 
410.947084  	29.587825 
412.383962  	28.419226 
413.820840  	30.063152 
415.257718  	29.919178 
416.694596  	28.321723 
418.131474  	29.573338 
419.568352  	29.305088 
421.005230  	29.223142 
422.442108  	30.110649 
423.878986  	29.670323 
425.315863  	30.351758 
426.752741  	30.067783 
428.189619  	28.996959 
429.626497  	29.572049 
431.063375  	29.467517 
432.500253  	29.719150 
433.937131  	29.973956 
435.374009  	29.203302 
436.810887  	30.462185 
438.247765  	31.078802 
439.684643  	30.057942 
441.121521  	30.419922 
442.558398  	30.323545 
443.995276  	29.923416 
445.432154  	30.221747 
446.869032  	30.012435 
448.305910  	30.533301 
449.742788  	30.625558 
451.179666  	30.053970 
452.616544  	30.191090 
454.053422  	29.645224 
455.490300  	29.483694 
456.927178  	30.156467 
458.364056  	29.936227 
459.800933  	30.498543 
461.237811  	30.893636 
462.674689  	30.480028 
464.111567  	30.552661 
465.548445  	30.375150 
466.985323  	30.637640 
468.422201  	31.093413 
469.859079  	30.515905 
471.295957  	30.408893 
472.732835  	30.391600 
474.169713  	30.150794 
475.606591  	30.617176 
477.043469  	30.326427 
478.480346  	30.059445 
479.917224  	30.554126 
481.354102  	30.363640 
482.790980  	30.329238 
484.227858  	30.420134 
485.664736  	30.237585 
487.101614  	30.748673 
488.538492  	30.890193 
489.975370  	30.629893 
491.412248  	30.750074 
492.849126  	30.617776 
494.286004  	30.718895 
495.722881  	30.902290 
497.159759  	30.720733 
498.596637  	30.852703 
500.033515  	30.846365 
501.470393  	30.774133 
502.907271  	31.122921 
504.344149  	31.145956 
505.781027  	31.177871 
507.217905  	31.290290 
508.654783  	31.208414 
510.091661  	31.425228 
511.528539  	31.474200 
512.965416  	31.397794 
514.402294  	31.595692 
515.839172  	31.504839 
517.276050  	31.504920 
518.712928  	31.734924 
520.149806  	31.577827 
521.586684  	31.584090 
523.023562  	31.788491 
524.460440  	31.800589 
525.897318  	31.854257 
527.334196  	31.997345 
528.771074  	32.191521 
530.207951  	32.205964 
531.644829  	32.093152 
533.081707  	32.192436 
534.518585  	32.197525 
535.955463  	32.169738 
537.392341  	32.388318 
538.829219  	32.479152 
540.266097  	32.469301 
541.702975  	32.487443 
543.139853  	32.591958 
544.576731  	32.873605 
546.013609  	32.998865 
547.450486  	33.022561 
548.887364  	32.988502 
550.324242  	32.801232 
551.761120  	32.956840 
553.197998  	33.198267 
554.634876  	33.169505 
556.071754  	33.304739 
557.508632  	33.400153 
558.945510  	33.482031 
560.382388  	33.765132 
561.819266  	33.740762 
563.256144  	33.706466 
564.693021  	34.002583 
566.129899  	34.143836 
567.566777  	34.135064 
569.003655  	34.118918 
570.440533  	34.194044 
571.877411  	34.383188 
573.314289  	34.375073 
574.751167  	34.409958 
576.188045  	34.670125 
577.624923  	34.784778 
579.061801  	34.827817 
580.498679  	34.914434 
581.935556  	35.042160 
583.372434  	35.206643 
584.809312  	35.198096 
586.246190  	35.211190 
587.683068  	35.380080 
589.119946  	35.516392 
590.556824  	35.727826 
591.993702  	35.865919 
593.430580  	35.855341 
594.867458  	35.989033 
596.304336  	36.147334 
597.741214  	36.278186 
599.178091  	36.421248 
600.614969  	36.453471 
602.051847  	36.560856 
603.488725  	36.729092 
604.925603  	36.872051 
606.362481  	37.071696 
607.799359  	37.159759 
609.236237  	37.177067 
610.673115  	37.339790 
612.109993  	37.525330 
613.546871  	37.723386 
614.983749  	37.867152 
616.420626  	37.940850 
617.857504  	38.104433 
619.294382  	38.273421 
620.731260  	38.368707 
622.168138  	38.487489 
623.605016  	38.607407 
625.041894  	38.743713 
626.478772  	38.868473 
627.915650  	38.939293 
629.352528  	39.021360 
630.789406  	39.070453 
632.226284  	39.131599 
633.663161  	39.282352 
635.100039  	39.405509 
636.536917  	39.564347 
637.973795  	39.740920 
639.410673  	39.806444 
640.847551  	39.955498 
642.284429  	40.202937 
643.721307  	40.351353 
645.158185  	40.478113 
646.595063  	40.604489 
648.031941  	40.759816 
649.468819  	40.914520 
650.905696  	41.060219 
652.342574  	41.237131 
653.779452  	41.349319 
655.216330  	41.480630 
656.653208  	41.737609 
658.090086  	41.933256 
659.526964  	42.071987 
660.963842  	42.202317 
662.400720  	42.316786 
663.837598  	42.506759 
665.274476  	42.653347 
666.711354  	42.769701 
668.148231  	43.018379 
669.585109  	43.252845 
671.021987  	43.368490 
672.458865  	43.554333 
673.895743  	43.740027 
675.332621  	43.920911 
676.769499  	44.131162 
678.206377  	44.285436 
679.643255  	44.469256 
681.080133  	44.708296 
682.517011  	44.907590 
683.953889  	45.094670 
685.390766  	45.315282 
686.827644  	45.571599 
688.264522  	45.787893 
689.701400  	45.926937 
691.138278  	46.088533 
692.575156  	46.270562 
694.012034  	46.463864 
695.448912  	46.686034 
696.885790  	46.895167 
698.322668  	47.103636 
699.759546  	47.305749 
701.196424  	47.491563 
702.633301  	47.683443 
704.070179  	47.882276 
705.507057  	48.094338 
706.943935  	48.322660 
708.380813  	48.488538 
709.817691  	48.665981 
711.254569  	48.899909 
712.691447  	49.115125 
714.128325  	49.343462 
715.565203  	49.579670 
717.002081  	49.776987 
718.438959  	49.996359 
719.875837  	50.242936 
721.312714  	50.467072 
722.749592  	50.665454 
724.186470  	50.828343 
725.623348  	51.082448 
727.060226  	51.336664 
728.497104  	51.593043 
729.933982  	51.782630 
731.370860  	51.963508 
732.807738  	52.141613 
734.244616  	52.382817 
735.681494  	52.670991 
737.118372  	52.940577 
738.555249  	53.202095 
739.992127  	53.442051 
741.429005  	53.629406 
742.865883  	53.798938 
744.302761  	54.045776 
745.739639  	54.306242 
747.176517  	54.494047 
748.613395  	54.721793 
750.050273  	54.981738 
751.487151  	55.191445 
752.924029  	55.392560 
754.360907  	55.582178 
755.797784  	55.827202 
757.234662  	56.142407 
758.671540  	56.393365 
760.108418  	56.664793 
761.545296  	56.984237 
762.982174  	57.205473 
764.419052  	57.421219 
765.855930  	57.677133 
767.292808  	57.907832 
768.729686  	58.165129 
770.166564  	58.385245 
771.603442  	58.561835 
773.040319  	58.812660 
774.477197  	59.069523 
775.914075  	59.288201 
777.350953  	59.554741 
778.787831  	59.869938 
780.224709  	60.157774 
781.661587  	60.395245 
783.098465  	60.644177 
784.535343  	60.864548 
785.972221  	61.024919 
787.409099  	61.280214 
788.845977  	61.609252 
790.282854  	61.900558 
791.719732  	62.201911 
793.156610  	62.459311 
794.593488  	62.675957 
796.030366  	62.948967 
797.467244  	63.204156 
798.904122  	63.460792 
800.341000  	63.749205 
801.777878  	63.969325 
803.214756  	64.190581 
804.651634  	64.462398 
806.088512  	64.733476 
807.525389  	65.009082 
808.962267  	65.223444 
810.399145  	65.422741 
811.836023  	65.715739 
813.272901  	66.003404 
814.709779  	66.267371 
816.146657  	66.557401 
817.583535  	66.814316 
819.020413  	67.072205 
820.457291  	67.358090 
821.894169  	67.609134 
823.331047  	67.841469 
824.767924  	68.114671 
826.204802  	68.423593 
827.641680  	68.677722 
829.078558  	68.881002 
830.515436  	69.148218 
831.952314  	69.454982 
833.389192  	69.761839 
834.826070  	70.065350 
836.262948  	70.276260 
837.699826  	70.465146 
839.136704  	70.749257 
840.573582  	71.022566 
842.010459  	71.242375 
843.447337  	71.512572 
844.884215  	71.823321 
846.321093  	72.063958 
847.757971  	72.262231 
849.194849  	72.531256 
850.631727  	72.805840 
852.068605  	73.044227 
853.505483  	73.322708 
854.942361  	73.569321 
856.379239  	73.794298 
857.816117  	74.095735 
859.252994  	74.371619 
860.689872  	74.604767 
862.126750  	74.864294 
863.563628  	75.114362 
865.000506  	75.367575 
866.437384  	75.610166 
867.874262  	75.860657 
869.311140  	76.169293 
870.748018  	76.421473 
872.184896  	76.637545 
873.621774  	76.919353 
875.058652  	77.179570 
876.495529  	77.427228 
877.932407  	77.698856 
879.369285  	77.940415 
880.806163  	78.181572 
882.243041  	78.419483 
883.679919  	78.646638 
885.116797  	78.873263 
886.553675  	79.064783 
887.990553  	79.268399 
889.427431  	79.480044 
890.864309  	79.670472 
892.301187  	79.906367 
893.738064  	80.153283 
895.174942  	80.376352 
896.611820  	80.577578 
898.048698  	80.735608 
899.485576  	80.944773 
900.922454  	81.175156 
902.359332  	81.339277 
903.796210  	81.526977 
905.233088  	81.702012 
906.669966  	81.859602 
908.106844  	82.103493 
909.543722  	82.306165 
910.980599  	82.411074 
912.417477  	82.526074 
913.854355  	82.674310 
915.291233  	82.856855 
916.728111  	83.009800 
918.164989  	83.144202 
919.601867  	83.346190 
921.038745  	83.527022 
922.475623  	83.669146 
923.912501  	83.812883 
925.349379  	83.909078 
926.786257  	84.032858 
928.223134  	84.208422 
929.660012  	84.386063 
931.096890  	84.587410 
932.533768  	84.743710 
933.970646  	84.866306 
935.407524  	85.030870 
936.844402  	85.191717 
938.281280  	85.372759 
939.718158  	85.556493 
941.155036  	85.675776 
942.591914  	85.779374 
944.028792  	85.861148 
945.465670  	85.957866 
946.902547  	86.113406 
948.339425  	86.236078 
949.776303  	86.359567 
951.213181  	86.497350 
952.650059  	86.569100 
954.086937  	86.663789 
955.523815  	86.806316 
956.960693  	86.907360 
958.397571  	86.971395 
959.834449  	87.044935 
961.271327  	87.170977 
962.708205  	87.275687 
964.145082  	87.300170 
965.581960  	87.352269 
967.018838  	87.430312 
968.455716  	87.490864 
969.892594  	87.567500 
971.329472  	87.621226 
972.766350  	87.666890 
974.203228  	87.737742 
975.640106  	87.798386 
977.076984  	87.858210 
978.513862  	87.910874 
979.950740  	87.963910 
981.387617  	88.018877 
982.824495  	88.045892 
984.261373  	88.105774 
985.698251  	88.152139 
987.135129  	88.128050 
988.572007  	88.157425 
990.008885  	88.180184 
991.445763  	88.125164 
992.882641  	88.134819 
994.319519  	88.185783 
995.756397  	88.224668 
997.193275  	88.317041 
998.630152  	88.423676 
1000.067030  	88.520118 
1001.503908  	88.637907 
1002.940786  	88.760334 
1004.377664  	88.841169 
1005.814542  	88.868591 
1007.251420  	88.925484 
1008.688298  	88.989839 
1010.125176  	89.003999 
1011.562054  	89.077143 
1012.998932  	89.163347 
1014.435810  	89.155365 
1015.872687  	89.143805 
1017.309565  	89.121550 
1018.746443  	89.060031 
1020.183321  	89.027551 
1021.620199  	88.996591 
1023.057077  	88.942533 
1024.493955  	88.870802 
1025.930833  	88.779452 
1027.367711  	88.694913 
1028.804589  	88.603628 
1030.241467  	88.539416 
1031.678345  	88.526386 
1033.115222  	88.469767 
1034.552100  	88.365011 
1035.988978  	88.286673 
1037.425856  	88.237526 
1038.862734  	88.172156 
1040.299612  	88.076068 
1041.736490  	88.030535 
1043.173368  	88.046198 
1044.610246  	88.056547 
1046.047124  	88.091228 
1047.484002  	88.140527 
1048.920880  	88.213951 
1050.357757  	88.370067 
1051.794635  	88.510083 
1053.231513  	88.620289 
1054.668391  	88.754671 
1056.105269  	88.849436 
1057.542147  	88.972061 
1058.979025  	89.107467 
1060.415903  	89.148844 
1061.852781  	89.223754 
1063.289659  	89.336079 
1064.726537  	89.407340 
1066.163415  	89.501599 
1067.600292  	89.560602 
1069.037170  	89.585932 
1070.474048  	89.657310 
1071.910926  	89.730488 
1073.347804  	89.799890 
1074.784682  	89.834220 
1076.221560  	89.837195 
1077.658438  	89.876581 
1079.095316  	89.898030 
1080.532194  	89.934479 
1081.969072  	89.984821 
1083.405950  	89.947590 
1084.842827  	89.946470 
1086.279705  	89.994784 
1087.716583  	89.987187 
1089.153461  	90.013550 
1090.590339  	90.034052 
1092.027217  	90.001193 
1093.464095  	90.007206 
1094.900973  	90.005234 
1096.337851  	89.998244 
1097.774729  	90.020680 
1099.211607  	89.990857 
1100.648485  	89.928820 
1102.085362  	89.883111 
1103.522240  	89.862514 
1104.959118  	89.871320 
1106.395996  	89.849603 
1107.832874  	89.796501 
1109.269752  	89.755551 
1110.706630  	89.733258 
1112.143508  	89.727757 
1113.580386  	89.711186 
1115.017264  	89.728807 
1116.454142  	89.818841 
1117.891020  	89.903609 
1119.327897  	89.968360 
1120.764775  	90.023887 
1122.201653  	90.077981 
1123.638531  	90.170456 
1125.075409  	90.252633 
1126.512287  	90.325967 
1127.949165  	90.409081 
1129.386043  	90.444152 
1130.822921  	90.493330 
1132.259799  	90.551932 
1133.696677  	90.556315 
1135.133555  	90.590840 
1136.570432  	90.630703 
1138.007310  	90.645346 
1139.444188  	90.677308 
1140.881066  	90.653214 
1142.317944  	90.628942 
1143.754822  	90.658395 
1145.191700  	90.645559 
1146.628578  	90.638152 
1148.065456  	90.639201 
1149.502334  	90.603636 
1150.939212  	90.603799 
1152.376090  	90.592119 
1153.812967  	90.563157 
1155.249845  	90.593057 
1156.686723  	90.609880 
1158.123601  	90.599136 
1159.560479  	90.582337 
1160.997357  	90.544544 
1162.434235  	90.540227 
1163.871113  	90.542322 
1165.307991  	90.525369 
1166.744869  	90.521617 
1168.181747  	90.492561 
1169.618625  	90.474226 
1171.055502  	90.491434 
1172.492380  	90.485268 
1173.929258  	90.477908 
1175.366136  	90.468233 
1176.803014  	90.460330 
1178.239892  	90.482590 
1179.676770  	90.465973 
1181.113648  	90.431571 
1182.550526  	90.436926 
1183.987404  	90.427756 
1185.424282  	90.413299 
1186.861160  	90.420400 
1188.298038  	90.427326 
1189.734915  	90.419750 
1191.171793  	90.395155 
1192.608671  	90.402132 
1194.045549  	90.407199 
1195.482427  	90.357294 
1196.919305  	90.343305 
1198.356183  	90.357213 
1199.793061  	90.336593 
1201.229939  	90.321189 
1202.666817  	90.296495 
1204.103695  	90.275987 
1205.540573  	90.274343 
1206.977450  	90.243148 
1208.414328  	90.238414 
1209.851206  	90.256135 
1211.288084  	90.236043 
1212.724962  	90.235761 
1214.161840  	90.236918 
1215.598718  	90.215359 
1217.035596  	90.215822 
1218.472474  	90.210179 
1219.909352  	90.212222 
1221.346230  	90.214924 
1222.783108  	90.183202 
1224.219985  	90.196766 
1225.656863  	90.222733 
1227.093741  	90.191522 
1228.530619  	90.186963 
1229.967497  	90.201236 
1231.404375  	90.188139 
1232.841253  	90.184989 
1234.278131  	90.187448 
1235.715009  	90.188042 
1237.151887  	90.183044 
1238.588765  	90.171285 
1240.025643  	90.178101 
1241.462520  	90.183506 
1242.899398  	90.177000 
1244.336276  	90.174598 
1245.773154  	90.178460 
1247.210032  	90.190542 
1248.646910  	90.182874 
1250.083788  	90.177870 
1251.520666  	90.210442 
1252.957544  	90.229608 
1254.394422  	90.240057 
1255.831300  	90.242145 
1257.268178  	90.205128 
1258.705055  	90.202198 
1260.141933  	90.220457 
1261.578811  	90.205386 
1263.015689  	90.226252 
1264.452567  	90.257742 
1265.889445  	90.245438 
1267.326323  	90.235679 
1268.763201  	90.238738 
1270.200079  	90.246896 
1271.636957  	90.244059 
1273.073835  	90.229289 
1274.510713  	90.234114 
1275.947590  	90.227657 
1277.384468  	90.220252 
1278.821346  	90.233121 
1280.258224  	90.212097 
1281.695102  	90.196872 
1283.131980  	90.212428 
1284.568858  	90.199813 
1286.005736  	90.182282 
1287.442614  	90.166712 
1288.879492  	90.150932 
1290.316370  	90.164161 
1291.753248  	90.166175 
1293.190125  	90.166171 
1294.627003  	90.182238 
1296.063881  	90.167852 
1297.500759  	90.153018 
1298.937637  	90.152412 
1300.374515  	90.138544 
1301.811393  	90.131155 
1303.248271  	90.121015 
1304.685149  	90.109214 
1306.122027  	90.104637 
1307.558905  	90.091976 
1308.995783  	90.101965 
1310.432660  	90.103614 
1311.869538  	90.089061 
1313.306416  	90.081459 
1314.743294  	90.057386 
1316.180172  	90.038921 
1317.617050  	90.047224 
1319.053928  	90.031951 
1320.490806  	90.026494 
1321.927684  	90.030945 
1323.364562  	90.030857 
1324.801440  	90.035752 
1326.238318  	90.033433 
1327.675195  	90.019041 
1329.112073  	90.029177 
1330.548951  	90.009074 
1331.985829  	90.008152 
1333.422707  	90.031531 
1334.859585  	90.016313 
1336.296463  	90.014719 
1337.733341  	90.020720 
1339.170219  	90.005486 
1340.607097  	90.003266 
1342.043975  	90.007009 
1343.480853  	90.012235 
1344.917730  	90.021918 
1346.354608  	90.036698 
1347.791486  	90.056775 
1349.228364  	90.065600 
1350.665242  	90.068942 
1352.102120  	90.083427 
1353.538998  	90.082760 
1354.975876  	90.095111 
1356.412754  	90.113836 
1357.849632  	90.114282 
1359.286510  	90.110536 
1360.723388  	90.105863 
1362.160265  	90.069131 
1363.597143  	90.053306 
1365.034021  	90.040673 
1366.470899  	90.039234 
1367.907777  	90.045175 
1369.344655  	90.017327 
1370.781533  	90.007333 
1372.218411  	90.014592 
1373.655289  	90.007181 
1375.092167  	90.015986 
1376.529045  	90.027903 
1377.965923  	90.031752 
1379.402800  	90.027465 
1380.839678  	90.020847 
1382.276556  	90.018483 
1383.713434  	89.995363 
1385.150312  	89.967334 
1386.587190  	89.943257 
1388.024068  	89.932032 
1389.460946  	89.947995 
1390.897824  	89.950712 
1392.334702  	89.935850 
1393.771580  	89.933966 
1395.208458  	89.905539 
1396.645335  	89.867393 
1398.082213  	89.874667 
1399.519091  	89.868680 
1400.955969  	89.839638 
1402.392847  	89.827228 
1403.829725  	89.794807 
1405.266603  	89.771132 
1406.703481  	89.767576 
1408.140359  	89.753438 
1409.577237  	89.748570 
1411.014115  	89.751582 
1412.450993  	89.736326 
1413.887871  	89.733742 
1415.324748  	89.705796 
1416.761626  	89.688824 
1418.198504  	89.709543 
1419.635382  	89.677270 
1421.072260  	89.659770 
1422.509138  	89.643116 
1423.946016  	89.615738 
1425.382894  	89.613666 
1426.819772  	89.619155 
1428.256650  	89.626114 
1429.693528  	89.654229 
1431.130406  	89.664811 
1432.567283  	89.645454 
1434.004161  	89.622535 
1435.441039  	89.618032 
1436.877917  	89.638872 
1438.314795  	89.632168 
1439.751673  	89.624693 
1441.188551  	89.646574 
1442.625429  	89.642834 
1444.062307  	89.628727 
1445.499185  	89.652272 
1446.936063  	89.679659 
1448.372941  	89.740163 
1449.809818  	89.729143 
1451.246696  	89.670181 
1452.683574  	89.650037 
1454.120452  	89.620763 
1455.557330  	89.621922 
1456.994208  	89.610588 
1458.431086  	89.556399 
1459.867964  	89.572005 
1461.304842  	89.594707 
1462.741720  	89.603503 
1464.178598  	89.638003 
1465.615476  	89.623572 
1467.052353  	89.609940 
1468.489231  	89.635294 
1469.926109  	89.632510 
1471.362987  	89.639374 
1472.799865  	89.633124 
1474.236743  	89.607893 
1475.673621  	89.614592 
1477.110499  	89.622075 
1478.547377  	89.661058 
1479.984255  	89.726209 
1481.421133  	89.726522 
1482.858011  	89.686896 
1484.294888  	89.679734 
1485.731766  	89.658942 
1487.168644  	89.637987 
1488.605522  	89.595783 
1490.042400  	89.557454 
1491.479278  	89.545963 
1492.916156  	89.524349 
1494.353034  	89.517062 
1495.789912  	89.506705 
1497.226790  	89.449609 
1498.663668  	89.419842 
1500.100546  	89.403138 
1501.537423  	89.381178 
1502.974301  	89.353169 
1504.411179  	89.330686 
1505.848057  	89.326512 
1507.284935  	89.220147 
1508.721813  	89.097227 
1510.158691  	89.066891 
1511.595569  	89.044196 
1513.032447  	88.993433 
1514.469325  	88.941504 
1515.906203  	88.877650 
1517.343081  	88.843133 
1518.779958  	88.815802 
1520.216836  	88.758749 
1521.653714  	88.697293 
1523.090592  	88.620658 
1524.527470  	88.564786 
1525.964348  	88.526722 
1527.401226  	88.451487 
1528.838104  	88.409781 
1530.274982  	88.368059 
1531.711860  	88.265454 
1533.148738  	88.217713 
1534.585616  	88.164786 
1536.022493  	88.072417 
1537.459371  	88.053870 
1538.896249  	88.014420 
1540.333127  	87.886378 
1541.770005  	87.831349 
1543.206883  	87.707095 
1544.643761  	87.610749 
1546.080639  	87.542593 
1547.517517  	87.374885 
1548.954395  	87.317662 
1550.391273  	87.225419 
1551.828151  	87.140866 
1553.265028  	87.087428 
1554.701906  	86.969850 
1556.138784  	86.874915 
1557.575662  	86.832944 
1559.012540  	86.671753 
1560.449418  	86.575475 
1561.886296  	86.464134 
1563.323174  	86.345576 
1564.760052  	86.221655 
1566.196930  	86.063198 
